# SFF main_header 6
# beamline_name = "APS 10ID";
# %date = "Mon Jun 03 2013 19:44:32";
# edge_energy = 30491;
# sff_header1 = " ";
# sff_header2 = " ";
# %devices = smy smx Io It corr_roi1_0 corr_roi2_0 corr_roi3_0 corr_roi4_0;
 89000      16000          197182     197241 320.8501   514.00067  746.78651  586.02057
 89000      16600          197182     192094 1284.0168  1506.8995  1629.824   1414.3563
 89000      17200          197181     104456 1318.1945  1571.0878  1895.4351  1607.8734
 89000      17800          197181      97315 1292.278   1477.7847  1672.8957  1519.4696
 89000      18400          197182     126206 1382.8706  1470.1553  1762.2907  1467.8095
 89000      19000          197182      40513 1897.823   1917.585   2364.3606  2137.8001
 89000      19600          197182      23986 2097.4306  2457.3243  2392.1314  2531.8726
 89000      20200          197182      16348 2416.6462  2643.6604  2861.4538  2812.0335
 89000      20800          197182      15280 16098.512  13804.751  17558.786  16814.222
 89000      21400          197182      33787 14664.955  13032.86   16849.642  15810.156
 89000      22000          197182      44021 12329.46   11303.869  13936.316  13382.703
 89000      22600          197181      51513 10131.171  9837.0373  11629.921  11061.674
 89000      23200          197182      61569 6686.0952  6710.263   7412.8725  7412.7801
 89000      23800          197182      63248 10456.233  9989.0422  11342.27   11278.796
 89000      24400          197182      71213 5886.6122  5729.5244  6676.3311  6644.8808
 89000      25000          197182      71525 5657.7987  5241.1957  6180.9483  5626.6239
 89000      25600          197182      70884 5253.1379  5506.9084  6378.5149  5964.2337
 89000      26200          197182      60171 11414.549  10751.983  13388.276  12181.861
 89000      26800          197182      66486 10955.729  10169.606  12278.157  11946.898
 89000      27400          197182      67717 8542.3938  8129.6751  9852.6347  8827.4024
 89000      28000          197182      59403 16227.571  14442.601  17850.513  16508.272
 89000      28600          197181      58453 10764.889  10394.578  12485.965  11762.82
 89000      29200          197182      55432 11903.506  11628.438  13852.888  13033.217
 89000      29800          197182      44349 16927.419  16790.784  19795.654  18060.409
 89000      30400          197182      35666 18403.471  17750.159  21191.384  19636.168
 89000      31000          197182      21549 22859.671  21139.967  24547.726  24501.385
 89000      31600          197182      12749 5961.6313  6923.9006  7361.6454  6549.4542
 89000      32200          197182      16861 5820.1068  6735.0724  7003.46    6607.8249
 89000      32800          197182      24941 5783.8596  6626.2223  7181.1661  6639.4335
 89000      33400          197182      39972 5498.6585  6496.2614  6396.4414  6249.609
 89000      34000          197182      82202 5168.4526  5631.8717  5992.4341  5379.9637
 89000      34600          197182     140503 4321.5809  5323.6608  5703.6409  5123.4693
 89000      35200          197182     197240 1973.6249  2522.9786  2698.2102  2332.4777
 89000      35800          197182     197240 419.91405  698.56358  646.2649   618.76227