# SFF main_header 6
# beamline_name = "APS 10ID";
# %date = "Mon Jun 03 2013 19:44:32";
# edge_energy = 30491;
# sff_header1 = " ";
# sff_header2 = " ";
# %devices = smy smx Io It corr_roi1_0 corr_roi2_0 corr_roi3_0 corr_roi4_0;
 92000      16000          197182     197240 386.61485  436.16851  852.25503  522.34995 
 92000      16600          197182     197241 1234.7612  1382.4231  1614.449   1390.0105 
 92000      17200          197181     109166 1385.4821  1427.4114  1742.757   1626.6806 
 92000      17800          197182      89467 1229.1661  1211.1008  1713.1494  1474.9604 
 92000      18400          197182     140251 1189.0528  1253.1001  1498.4635  1477.6205 
 92000      19000          197182      42352 1730.8642  1663.8864  2017.6331  1969.7618 
 92000      19600          197182      25175 1790.6993  1999.345   2139.5995  2246.2575 
 92000      20200          197181      16915 2444.606   2168.6825  2607.4061  2757.835  
 92000      20800          197182      12779 9535.7216  6963.9274  9228.3661  9532.6115 
 92000      21400          197182      29875 9852.3117  7296.4986  10592.222  10352.514 
 92000      22000          197182      38262 16307.888  12306.706  17739.711  17950.957 
 92000      22600          197182      45391 15820.883  12986.598  17143.704  16615.214 
 92000      23200          197181      55058 10207.673  8231.0041  10586.565  10262.924 
 92000      23800          197182      59942 12361.872  10533.023  13200.573  12306.06  
 92000      24400          197182      60489 10667.768  9975.2916  11435.865  11296.2   
 92000      25000          197182      59943 10683.492  9247.328   11653.503  10968.627 
 92000      25600          197182      32863 19741.659  17006.128  21849.175  20118.469 
 92000      26200          197182      61943 8534.7704  8144.7784  10111.573  8950.486  
 92000      26800          197181      59797 13179.076  11878.315  14044.268  13892.641 
 92000      27400          197182      58376 13927.483  13079.664  15446.127  15125.704 
 92000      28000          197182      55306 17899.505  16862.605  20450.544  19599.71  
 92000      28600          197182      45811 25133.705  23377.217  27790.188  26014.052 
 92000      29200          197182      40077 35988.454  32969.324  38657.427  37509.396 
 92000      29800          197182      30220 48490.628  43036.201  50001.804  48587.784 
 92000      30400          197182      24902 44317.743  40178.108  47980.035  46095.768 
 92000      31000          197181      13332 50792.027  44651.988  53861.301  52381.254 
 92000      31600          197181      12220 7597.1443  7775.4884  8873.3253  8192.787  
 92000      32200          197182      16269 5996.859   6905.802   6981.1295  6740.4702 
 92000      32800          197182      24255 5680.8245  6962.0516  7249.5342  6453.7554 
 92000      33400          197181      38149 5554.6054  6148.9513  7076.1581  6460.9238 
 92000      34000          197182      76975 4996.1287  5497.9259  5925.6416  5567.4919 
 92000      34600          197181     130590 4508.8069  5608.5799  5795.2526  5334.3993 
 92000      35200          197182     197240 2392.8369  2999.8158  3324.3828  2961.7002 
 92000      35800          197182     197240 467.21124  493.25044  711.06601  505.49083 